#FIG 3.2
Landscape
Center
Inches
Letter  
200.00
Single
-2
1200 2
2 1 0 3 0 7 100 0 -1 0.000 0 0 -1 0 0 2
	 2175 5700 4500 5700
2 1 0 10 0 7 100 0 -1 0.000 0 0 -1 0 0 2
	 4273 5494 4792 5794
2 1 0 3 0 7 100 0 -1 0.000 0 0 -1 0 0 2
	 4476 5713 4800 6300
2 1 0 3 0 7 100 0 -1 0.000 0 0 -1 0 0 2
	 4800 6300 6600 6300
2 1 0 10 0 7 100 0 -1 0.000 0 0 -1 0 0 2
	 4509 6219 5029 6519
2 1 0 3 0 7 100 0 -1 0.000 0 0 -1 0 0 2
	 6975 6300 7650 6300
2 2 0 3 0 7 100 0 -1 0.000 0 0 -1 0 0 5
	 8925 6075 9150 6075 9150 6525 8925 6525 8925 6075
2 1 0 3 0 7 100 0 -1 0.000 0 0 -1 0 0 2
	 8175 6300 8850 6300
2 3 0 3 0 7 100 0 -1 0.000 0 0 -1 0 0 10
	 7800 6075 7950 6075 7950 5700 8250 5700 8250 5250 7425 5250
	 7425 5700 7725 5700 7725 6075 7800 6075
2 1 0 3 20 20 100 0 20 0.000 0 0 -1 0 0 5
	 7959 6154 7694 6419 7800 6525 8065 6260 7959 6154
2 2 0 3 0 7 100 0 -1 0.000 0 0 -1 0 0 5
	 6675 6075 6900 6075 6900 6525 6675 6525 6675 6075
4 0 0 100 0 9 30 0.0000 4 300 150 7575 5100 I\001
4 0 0 100 0 9 18 0.0000 4 255 75 7725 5175 f\001
4 0 0 100 0 9 18 0.0000 4 195 135 6765 6030 0\001
4 0 0 100 0 9 30 0.0000 4 300 150 6600 5925 I\001
4 0 0 100 0 9 30 0.0000 4 300 150 8925 6000 I\001
4 0 0 100 0 10 24 0.0000 4 255 1335 5850 5550 Incident\001
4 0 0 100 0 10 24 0.0000 4 255 1980 8625 5550 Transmitted\001
4 0 0 100 0 10 24 0.0000 4 255 2085 7200 4725 Fluorescence\001
4 0 0 100 0 10 24 0.0000 4 255 2670 3900 7050 Monochromator\001
4 0 20 100 0 10 24 0.0000 4 330 1185 7350 7050 Sample\001
4 0 0 100 0 10 24 0.0000 4 255 2070 1875 5550 x-ray source\001
