#%name: As2O5 arsenic (V) oxide
#%atom: As
#%edge: K
#%xtal: As2O5.inp
#%prep: powder on tape (5 layers)
#%ref:  GaAs powder
#%misc: exafs to K16, GaAs in IR
#%det:  I0=N2 15cm; I1=Ar 30cm; I2=Ar 15cm
#%temp: 10K
#%beam: ssrl 2-3,  vert slits = 0.6mm
#%mono: si(111) unfocused, detuned 75%, clockwise at E=12000eV
#%date: Sat Apr 19 18:40:39 1997
#%cols: 413  E XMU XMUR I0
#---------------
# energy     log(i0/it)   log(it/ir)  i0
  11634.890  1.727877    0.8901875   540374.31 
  11644.908  1.724452    0.8846406   538156.31 
  11654.944  1.720589    0.8784106   535092.31 
  11664.998  1.716975    0.8723687   532761.31 
  11675.070  1.713305    0.8665169   530232.31 
  11684.862  1.709669    0.8609001   527545.31 
  11694.969  1.706062    0.8551855   524671.31 
  11705.093  1.702289    0.8493564   521581.31 
  11714.937  1.698849    0.8438109   518899.31 
  11725.095  1.695262    0.8378294   516262.31 
  11734.974  1.691762    0.8322801   513383.31 
  11744.867  1.688118    0.8263028   510964.31 
  11755.079  1.68462     0.8206738   508808.31 
  11765.009  1.681063    0.8153376   505954.31 
  11774.954  1.677758    0.8093403   502989.31 
  11784.918  1.674486    0.8039489   500033.31 
  11794.896  1.671497    0.7979722   498264.31 
  11804.895  1.668603    0.7930757   496320.31 
  11814.909  1.666058    0.7872434   493540.31 
  11824.940  1.664298    0.7824616   491061.31 
  11834.989  1.663448    0.7777691   488232.31 
  11845.057  1.665552    0.77513     485675.31 
  11845.361  1.665341    0.7751064   486043.31 
  11845.973  1.665863    0.7747316   486482.31 
  11846.583  1.666368    0.774864    485701.31 
  11846.889  1.666178    0.7747358   485328.31 
  11847.499  1.666644    0.7748696   486343.31 
  11848.110  1.667161    0.774852    486425.31 
  11848.415  1.667169    0.7748221   485587.31 
  11849.027  1.667636    0.7748086   485485.31 
  11849.637  1.668428    0.7749009   485546.31 
  11849.942  1.668453    0.7750855   485452.31 
  11850.556  1.669084    0.7749265   484299.31 
  11850.860  1.669587    0.7750821   484065.31 
  11851.471  1.670003    0.7752885   483974.31 
  11852.083  1.670907    0.7754811   484401.31 
  11852.390  1.671161    0.7758125   483599.31 
  11853.000  1.672       0.7757262   484356.31 
  11853.610  1.672869    0.7764119   484415.31 
  11853.917  1.673432    0.7764114   484757.31 
  11854.529  1.674638    0.7768087   484595.31 
  11855.140  1.675797    0.7774311   484366.31 
  11855.446  1.676287    0.7777023   484037.31 
  11856.058  1.677782    0.7784212   484643.31 
  11856.363  1.678434    0.7786713   483143.31 
  11856.976  1.680073    0.7796463   483179.31 
  11857.588  1.681724    0.7811201   483236.31 
  11857.894  1.682663    0.7812465   483281.31 
  11858.504  1.68478     0.7828731   483006.31 
  11859.118  1.687196    0.7845989   482985.31 
  11859.424  1.688439    0.785555    482731.31 
  11860.035  1.691463    0.7882315   482972.31 
  11860.647  1.694592    0.7914812   482362.31 
  11860.955  1.6959      0.7930629   481565.31 
  11861.566  1.700043    0.7975529   481681.31 
  11861.872  1.702062    0.8001643   482183.31 
  11862.484  1.707176    0.8074275   482378.31 
  11863.098  1.712892    0.8168884   480480.31 
  11863.403  1.715189    0.8220543   480918.31 
  11864.017  1.722785    0.8390002   481113.31 
  11864.628  1.731204    0.8636087   480030.31 
  11864.935  1.735943    0.8789019   479303.31 
  11865.547  1.747795    0.9226016   479178.31 
  11865.854  1.752795    0.9418767   479837.31 
  11866.467  1.768834    1.004289    479808.31 
  11867.078  1.78874     1.07633     479070.31 
  11867.388  1.799453    1.109001    479435.31 
  11867.999  1.828058    1.178661    480126.31 
  11868.611  1.867128    1.237822    479847.31 
  11868.919  1.88439     1.255651    479401.31 
  11869.532  1.945947    1.292544    479157.31 
  11870.145  2.028035    1.311117    479403.31 
  11870.451  2.07267     1.315605    479434.31 
  11871.064  2.202323    1.317921    478538.31 
  11871.371  2.256716    1.317491    478285.31 
  11871.985  2.45033     1.311853    478716.31 
  11872.599  2.678422    1.303296    478139.31 
  11872.905  2.793802    1.299197    477617.31 
  11873.518  3.091248    1.288517    477399.31 
  11874.133  3.384969    1.27687     477719.31 
  11874.439  3.485941    1.272805    478058.31 
  11875.053  3.694465    1.257823    478123.31 
  11875.358  3.739312    1.249859    477294.31 
  11875.975  3.731409    1.227967    477961.31 
  11876.588  3.62057     1.207742    478249.31 
  11876.894  3.567141    1.200757    478335.31 
  11877.509  3.40656     1.183966    476865.31 
  11878.123  3.25612     1.172271    477053.31 
  11878.430  3.190289    1.167431    477296.31 
  11879.044  3.061932    1.158306    477368.31 
  11879.351  3.020478    1.156       476209.31 
  11879.966  2.918753    1.149111    476630.31 
  11880.580  2.839704    1.143945    476216.31 
  11880.887  2.810976    1.14211     476729.31 
  11881.500  2.759161    1.137977    475026.31 
  11882.116  2.722061    1.13533     475736.31 
  11882.424  2.711732    1.134838    475861.31 
  11883.037  2.690952    1.133819    475910.31 
  11883.652  2.679711    1.13403     474950.31 
  11883.959  2.676621    1.134071    475040.31 
  11884.574  2.67192     1.134762    474939.31 
  11884.881  2.670762    1.135063    474577.31 
  11885.496  2.667954    1.135069    473967.31 
  11886.110  2.6656      1.133899    473327.31 
  11886.419  2.66472     1.133032    473571.31 
  11887.034  2.661569    1.132651    473857.31 
  11887.648  2.657771    1.131749    473316.31 
  11887.955  2.656494    1.131234    473837.31 
  11888.572  2.651152    1.130903    473835.31 
  11888.879  2.64844     1.130952    474064.31 
  11889.493  2.641247    1.131076    473725.31 
  11890.109  2.632116    1.131464    473437.31 
  11890.417  2.628379    1.131566    474081.31 
  11891.032  2.616643    1.132529    473930.31 
  11891.648  2.604802    1.132995    473316.31 
  11891.956  2.59905     1.133304    472794.31 
  11892.570  2.586639    1.13282     473459.31 
  11892.879  2.582057    1.132709    472802.31 
  11893.495  2.570207    1.131397    473061.31 
  11894.109  2.559554    1.128643    472677.31 
  11894.419  2.554717    1.128207    472378.31 
  11895.035  2.544886    1.12456     472331.31 
  11895.649  2.53637     1.120778    472555.06 
  11896.266  2.528747    1.117487    472342.34 
  11896.881  2.522066    1.114161    472034.12 
  11897.498  2.516688    1.112131    472441.44 
  11898.422  2.508495    1.11148     472196.25 
  11899.038  2.50277     1.112004    472582.59 
  11899.655  2.495285    1.112914    471990.44 
  11900.580  2.480602    1.114865    472044.81 
  11901.195  2.469211    1.115972    472909.72 
  11902.121  2.451359    1.117247    472634.09 
  11903.045  2.432321    1.116789    472759.03 
  11903.662  2.420536    1.115834    473727.47 
  11904.587  2.404377    1.115162    474026.41 
  11905.513  2.388618    1.113679    474138.87 
  11906.438  2.374764    1.112363    474062.87 
  11907.363  2.360862    1.110868    475175.37 
  11908.291  2.349284    1.109814    475697.37 
  11909.215  2.338073    1.109564    475951.91 
  11910.143  2.3293      1.109219    475901.97 
  11911.068  2.323057    1.109579    476720.53 
  11912.303  2.319967    1.110373    477670.59 
  11913.229  2.321389    1.111737    478497.22 
  11914.156  2.325666    1.112916    478910.31 
  11915.392  2.335228    1.113143    479837.94 
  11916.318  2.343798    1.112499    480747.09 
  11917.556  2.358142    1.109424    481153.75 
  11918.793  2.374184    1.105049    481521.94 
  11919.719  2.387218    1.101112    482511.62 
  11920.957  2.404989    1.09664     483872.84 
  11922.193  2.42067     1.093933    485212.56 
  11923.432  2.434058    1.092545    485912.81 
  11924.669  2.445093    1.090413    486547.56 
  11925.908  2.454159    1.089369    488092.84 
  11927.146  2.462257    1.089335    489216.62 
  11928.384  2.470194    1.089163    490655.94 
  11929.623  2.479       1.089843    491959.75 
  11930.861  2.488       1.09108     492881.09 
  11932.411  2.50056     1.094045    495167.97 
  11933.651  2.510398    1.096371    495977.31 
  11934.891  2.519346    1.099864    497523.22 
  11936.441  2.528839    1.10316     498996.62 
  11937.992  2.535017    1.105374    499812.53 
  11939.232  2.538718    1.105746    501109.97 
  11940.784  2.542507    1.104826    501938.94 
  11942.336  2.544955    1.102851    502737.41 
  11943.577  2.545818    1.100664    504339.37 
  11945.130  2.546267    1.098467    507501.87 
  11946.684  2.546554    1.09727     510067.91 
  11948.237  2.546322    1.095462    512107.44 
  11949.791  2.545415    1.09355     513984.47 
  11951.346  2.543401    1.091856    515484.03 
  11952.899  2.540626    1.090563    517743.12 
  11954.767  2.536316    1.088042    518259.72 
  11956.322  2.532149    1.085193    519748.84 
  11957.878  2.527805    1.082602    522621.47 
  11959.745  2.52277     1.081672    525002.62 
  11961.301  2.519004    1.081466    527017.25 
  11963.171  2.514804    1.082628    529045.44 
  11964.729  2.511907    1.082522    530439.12 
  11966.598  2.509237    1.082104    532882.37 
  11968.470  2.506153    1.079014    534468.06 
  11970.027  2.502732    1.075104    536951.31 
  11971.900  2.497406    1.068883    539667.06 
  11973.771  2.490287    1.062698    541735.37 
  11975.644  2.481898    1.057884    543003.12 
  11977.519  2.473306    1.055137    545246.44 
  11979.392  2.464326    1.053402    547358.25 
  11981.267  2.456604    1.052564    550097.62 
  11983.141  2.450147    1.052254    551103.5  
  11985.017  2.445046    1.052629    553612.87 
  11987.206  2.440433    1.054166    554419.75 
  11989.083  2.43805     1.056773    558354.12 
  11991.273  2.435052    1.060176    562177.06 
  11993.151  2.43288     1.063772    565113.5  
  11995.344  2.430278    1.067893    566739.44 
  11997.225  2.428309    1.070368    568570.94 
  11999.417  2.426662    1.071821    571080.87 
  12001.299  2.425891    1.07163     573331.37 
  12003.494  2.425314    1.069974    576181.44 
  12005.688  2.42526     1.067571    579856.94 
  12007.886  2.425406    1.064799    580839    
  12010.083  2.425796    1.062438    583518.56 
  12012.282  2.426719    1.059914    585341.62 
  12014.481  2.428407    1.056279    588438.25 
  12016.682  2.429907    1.053738    592790.37 
  12018.881  2.431103    1.0507      595762    
  12021.083  2.432068    1.04837     598470.12 
  12023.602  2.4336      1.04393     602202.81 
  12025.804  2.435829    1.041191    604306    
  12028.008  2.438898    1.038772    607159.69 
  12030.527  2.44308     1.035867    610675.87 
  12032.733  2.447044    1.034235    613239.62 
  12035.257  2.450643    1.031376    616638.87 
  12037.780  2.453768    1.028958    620592.62 
  12039.989  2.455653    1.026647    622526.87 
  12042.514  2.455592    1.024869    626322.69 
  12045.040  2.453778    1.02289     629439    
  12047.566  2.450912    1.020424    631534.81 
  12050.096  2.447386    1.01841     636068.12 
  12052.625  2.444492    1.017876    637883    
  12055.154  2.442308    1.018511    639752.37 
  12057.688  2.44084     1.019872    641983.25 
  12060.221  2.439114    1.020119    647702.69 
  12062.754  2.437224    1.019432    651434.62 
  12065.288  2.435899    1.017831    655880.06 
  12068.142  2.434306    1.01571     658750    
  12070.678  2.432541    1.014257    661557.44 
  12073.218  2.430482    1.014892    665800.44 
  12076.073  2.42777     1.016363    669103.94 
  12078.615  2.425643    1.017407    673145.94 
  12081.473  2.423639    1.01826     675055.5  
  12084.335  2.421847    1.018765    678974.56 
  12086.878  2.420328    1.018848    682361.12 
  12089.742  2.418188    1.017996    686954.19 
  12092.606  2.416075    1.01585     690406.81 
  12095.474  2.413699    1.012061    694111.87 
  12098.340  2.411273    1.008497    696628.56 
  12101.209  2.408778    1.004829    700565.69 
  12104.080  2.406333    1.001407    705407.31 
  12106.952  2.404004    0.9987487   709036.5  
  12109.825  2.401558    0.9954847   711485.19 
  12112.697  2.399515    0.9921026   714993.44 
  12115.894  2.397062    0.9874564   719085.12 
  12118.771  2.395526    0.9843523   723822.37 
  12121.650  2.393544    0.9807224   727281.19 
  12124.850  2.390929    0.9771643   731010.44 
  12127.731  2.388546    0.9746229   734356.25 
  12130.936  2.386055    0.9723123   739108.56 
  12133.819  2.383562    0.9709646   742839.37 
  12137.027  2.381879    0.9699173   745175.69 
  12140.235  2.3802      0.9702587   751801.56 
  12143.445  2.37854     0.9702764   755088.94 
  12146.337  2.377341    0.970255    758470.81 
  12149.551  2.376647    0.9703548   762449.25 
  12152.765  2.376623    0.9697167   765476.12 
  12155.981  2.377232    0.9688816   770126.56 
  12159.200  2.3775      0.9684809   774038.56 
  12162.421  2.377572    0.9674522   778344    
  12165.642  2.377214    0.9660141   782169    
  12169.189  2.37681     0.9644034   786272.5  
  12172.415  2.375878    0.9622285   789282.5  
  12175.643  2.373912    0.9598177   793772.06 
  12178.872  2.371158    0.9582936   798356.06 
  12182.426  2.368093    0.956767    801425.69 
  12185.658  2.366       0.9553795   806855.75 
  12189.218  2.364733    0.9536772   809243.31 
  12192.452  2.363888    0.9512619   814608.44 
  12196.016  2.363259    0.9486608   819200.06 
  12199.579  2.362003    0.9458615   820739.25 
  12202.822  2.360324    0.9440118   825966.87 
  12206.390  2.357478    0.9414591   828742.06 
  12209.961  2.353787    0.9389807   833797.75 
  12213.534  2.350573    0.9358687   837627    
  12217.107  2.348443    0.9320175   840507.69 
  12220.686  2.347669    0.9291367   846070.94 
  12224.263  2.347416    0.9256603   850714.69 
  12227.845  2.346773    0.9227179   855790    
  12231.427  2.34464     0.9200475   858789.81 
  12235.013  2.342114    0.9174795   864030.06 
  12238.927  2.33946     0.9149092   868447.94 
  12242.516  2.337584    0.9128752   871377.25 
  12246.108  2.33506     0.9113778   876396.12 
  12250.029  2.332522    0.9105074   880429.5  
  12253.625  2.331165    0.9098472   884467.37 
  12257.550  2.329824    0.9095274   888841.75 
  12261.152  2.328248    0.9087022   892475.69 
  12265.081  2.325871    0.9075252   897552.12 
  12269.016  2.323323    0.9058375   899429.06 
  12272.623  2.321437    0.9041432   905275.56 
  12276.561  2.319436    0.9026027   910590.56 
  12280.502  2.316698    0.9009452   914664.06 
  12284.445  2.313797    0.8994532   917754.06 
  12288.391  2.310596    0.8968476   923218.62 
  12292.338  2.308167    0.8943473   927179.62 
  12296.289  2.305745    0.891792    931047.25 
  12300.243  2.303562    0.8891238   935349.31 
  12304.198  2.301405    0.8861943   940565.87 
  12308.158  2.299759    0.8836924   942336    
  12312.119  2.298578    0.8814987   946284.62 
  12316.084  2.297639    0.8789764   952139.81 
  12320.380  2.296371    0.8761846   957931.44 
  12324.349  2.29452     0.8735955   959836.62 
  12328.652  2.292455    0.8706285   965381.31 
  12332.627  2.29081     0.8680353   970452.56 
  12336.604  2.288996    0.8654586   973381.25 
  12340.915  2.286594    0.8626913   978689.5  
  12345.229  2.284686    0.8598827   983446.25 
  12349.215  2.283088    0.8578211   987806.56 
  12353.536  2.281185    0.8554167   992205.37 
  12357.859  2.278871    0.8538848   994908.69 
  12362.187  2.27665     0.8513734   998326.5  
  12366.183  2.274873    0.8492155   1004478.8 
  12370.515  2.273046    0.8467582   1008142.7 
  12374.851  2.270651    0.8442912   1013167.1 
  12379.189  2.268045    0.8423346   1017941.9 
  12383.532  2.266257    0.8409129   1021165.4 
  12387.876  2.264975    0.8390677   1025946.3 
  12392.560  2.26298     0.8370605   1026955.7 
  12396.911  2.261554    0.8352757   1033922.7 
  12401.265  2.259579    0.8331421   1037905.1 
  12405.621  2.257783    0.8314213   1043170.1 
  12410.317  2.255455    0.8290011   1045903.6 
  12414.682  2.253081    0.8271505   1050954.6 
  12419.049  2.250201    0.8248277   1055702.1 
  12423.755  2.246962    0.8225568   1059972.3 
  12428.129  2.244152    0.8199196   1063362.8 
  12432.842  2.241807    0.8172014   1066126.9 
  12437.560  2.239997    0.8146073   1070378.5 
  12441.942  2.23844     0.8116378   1074831.6 
  12446.666  2.236702    0.8090766   1077523.3 
  12451.395  2.235188    0.8058431   1081038.4 
  12456.125  2.233586    0.8030737   1087977   
  12460.522  2.231522    0.8005746   1089845.3 
  12465.261  2.229466    0.797866    1093135.9 
  12470.003  2.226777    0.7950785   1098927.1 
  12474.748  2.22398     0.7924224   1103270.9 
  12479.498  2.221443    0.7899869   1107773.1 
  12484.250  2.218989    0.7874397   1110180.9 
  12489.007  2.216279    0.785213    1114510.1 
  12494.107  2.213399    0.7831045   1118301.9 
  12498.871  2.21069     0.7809402   1121191.3 
  12503.640  2.208713    0.7787449   1126333.1 
  12508.411  2.206311    0.7762102   1130873.4 
  12513.527  2.203818    0.7738308   1131889.3 
  12518.307  2.201777    0.7715854   1137533.6 
  12523.432  2.199803    0.7691108   1142562.5 
  12528.220  2.198071    0.7667705   1144669.9 
  12533.352  2.196002    0.7644432   1146843.9 
  12538.146  2.193847    0.7620384   1154372.3 
  12543.288  2.191484    0.7591779   1158753.3 
  12548.090  2.189555    0.757162    1162669.8 
  12553.239  2.187143    0.7547131   1168814.8 
  12558.393  2.184765    0.7522611   1170505.3 
  12563.551  2.182223    0.7496067   1175353.3 
  12568.713  2.179735    0.7470139   1180061.8 
  12573.536  2.177595    0.7447084   1186011.9 
  12578.707  2.175417    0.7421297   1188861.4 
  12583.881  2.173009    0.739147    1191352.5 
  12589.061  2.170725    0.7365117   1195160.1 
  12594.244  2.168739    0.7340534   1202325.1 
  12599.432  2.166931    0.7313833   1205632.9 
  12604.972  2.164898    0.7282422   1210348   
  12610.168  2.162957    0.7251949   1214894.6 
  12615.369  2.160796    0.722233    1217870.8 
  12620.574  2.1585      0.7194986   1223697.5 
  12625.784  2.155831    0.7168978   1228018.8 
  12631.348  2.152944    0.7140148   1230124.5 
  12636.566  2.150063    0.7113925   1233445.8 
  12642.137  2.146946    0.7087423   1233422.5 
  12647.364  2.144673    0.7063919   1237667.8 
  12652.945  2.142501    0.7036977   1236888.5 
  12658.184  2.140564    0.701159    1240934.9 
  12663.774  2.13843     0.6988134   1243319.6 
  12669.020  2.136446    0.6961988   1247150   
  12674.620  2.134115    0.6937904   1248704.9 
  12680.228  2.131623    0.6910363   1253159.3 
  12685.837  2.129364    0.6883007   1254761.1 
  12691.102  2.126941    0.6858978   1261584.5 
  12696.722  2.124443    0.6830511   1262526.5 
  12702.349  2.12198     0.6804012   1263938.9 
  12707.979  2.119515    0.6777788   1267902.9 
  12713.613  2.117038    0.6749556   1272560.4 
  12719.255  2.114136    0.6722569   1278023.3 
  12724.901  2.11179     0.6697043   1281210.8 
  12730.551  2.108945    0.6666998   1287201.9 
  12736.208  2.10632     0.6639552   1289558.4 
  12741.868  2.103809    0.6611115   1293101.4 
  12747.889  2.101056    0.6584015   1294765   
  12753.562  2.098514    0.6556328   1297755.1 
  12759.237  2.096045    0.6527975   1301959.6 
  12764.919  2.09385     0.6501196   1304135.8 
  12770.962  2.091506    0.647331    1309934.4 
  12776.654  2.089457    0.644546    1314210.6 
  12782.351  2.087113    0.6415067   1315094.3 
  12788.410  2.084368    0.6389052   1317525.4 
  12794.119  2.081991    0.6360573   1323456.1 
  12800.189  2.079618    0.6334835   1323198.4 
  12806.266  2.077289    0.6306438   1327260   
  12811.989  2.074687    0.6277117   1329782.3 
  12818.077  2.072028    0.6251331   1329360   
  12824.170  2.069426    0.6220835   1329365.4 
  12829.910  2.067203    0.619493    1336192.1 
  12836.016  2.064684    0.6170786   1338371.5 
  12842.127  2.062453    0.6141163   1339459.3 
  12848.244  2.060195    0.611431    1345933.6 
  12854.366  2.057797    0.6087283   1346924.5 
  12860.495  2.055362    0.6060338   1350388.9 
  12866.269  2.052931    0.6032094   1352707.8 
  12872.408  2.050133    0.600444    1355617.1 
  12878.555  2.047465    0.597459    1359564   
  12885.069  2.044623    0.59452     1359614.5 
